{
    "@context": [
        "https://ref.gs1.org/standards/epcis/2.0.0/epcis-context.jsonld",
        {
            "mft-spectra": "https:/ref.medifit-prima.net/epcis/sensorReport/spectroscopy"
        }
    ],
    "type": "ObjectEvent",
    "action": "OBSERVE",
    "bizStep": "sensor_reporting",
    "eventTime": "2023-08-28T17:10:35.953+02:00",
    "eventTimeZoneOffset": "+02:00",
    "readPoint": {
        "id": "https://medifit-prima.net"
    },
    "sensorElementList": [
        {
            "sensorMetadata": {
                "time": "2022-11-07T09:56:54.000+01:00",
                "rawData": "https://medifit-sample-exchange.s3.eu-central-1.amazonaws.com/Adulterared_honey_raw+data_AUTH_Raman.xlsx"
            },
            "sensorReport": [
                {
                    "type": "Wavenumber",
                    "mft-spectra:type": "Raman",
                    "mft-spectra:values": [
                        2439.0,
                        2436.2332,
                        2439.1868,
                        2444.9905,
                        2419.7074,
                        2401.7396,
                        2386.6074,
                        2357.7211,
                        2385.5652,
                        2427.4564,
                        2412.1669,
                        2404.5214,
                        2406.8844,
                        2428.8427,
                        2399.1163,
                        2383.954,
                        2421.0286,
                        2416.8326,
                        2413.7025,
                        2420.081,
                        2403.5229,
                        2389.2858,
                        2379.816,
                        2410.2012,
                        2422.9888,
                        2423.2498,
                        2431.0147,
                        2420.8345,
                        2403.2136,
                        2395.977,
                        2400.4648,
                        2409.0364,
                        2416.7177,
                        2416.1792,
                        2423.8374,
                        2450.4135,
                        2465.9534,
                        2469.6585,
                        2459.6305,
                        2467.1678,
                        2471.3634,
                        2473.0678,
                        2489.9182,
                        2495.4752,
                        2492.036,
                        2479.2008,
                        2458.4208,
                        2446.0522,
                        2471.2346,
                        2474.9811,
                        2483.0955,
                        2511.729,
                        2501.2384,
                        2498.8798,
                        2514.8617,
                        2511.4033,
                        2506.38,
                        2499.5187,
                        2480.569,
                        2473.8097,
                        2480.4626,
                        2516.5331,
                        2516.053,
                        2502.8786,
                        2494.8512,
                        2485.0246,
                        2491.3975,
                        2526.7376,
                        2499.353,
                        2489.487,
                        2506.0241,
                        2511.9601,
                        2523.5497,
                        2533.5158,
                        2501.4856,
                        2484.5173,
                        2481.3571,
                        2500.3069,
                        2498.2731,
                        2499.1639,
                        2517.2157,
                        2501.7629,
                        2493.2966,
                        2498.5069,
                        2518.6783,
                        2521.4519,
                        2513.9062,
                        2533.1582,
                        2531.3044,
                        2518.6187,
                        2504.2801,
                        2527.2857,
                        2553.8823,
                        2567.8094,
                        2624.5717,
                        2662.5783,
                        2673.035,
                        2675.9088,
                        2676.4448,
                        2671.3914,
                        2642.2723,
                        2619.153,
                        2591.7994,
                        2544.9111,
                        2519.9658,
                        2500.5055,
                        2482.1576,
                        2443.5098,
                        2425.0626,
                        2425.3682,
                        2396.1576,
                        2392.1611,
                        2400.5832,
                        2399.5247,
                        2418.8266,
                        2432.5623,
                        2421.1602,
                        2399.1246,
                        2385.4492,
                        2383.4767,
                        2383.3023,
                        2388.8557,
                        2392.6214,
                        2363.679,
                        2362.0859,
                        2363.5501,
                        2345.9305,
                        2351.6175,
                        2352.3175,
                        2340.6665,
                        2367.6378,
                        2370.5818,
                        2357.1696,
                        2363.8261,
                        2363.5528,
                        2359.8978,
                        2355.2131,
                        2370.5185,
                        2390.2288,
                        2410.6862,
                        2397.3431,
                        2377.607,
                        2355.7901,
                        2352.2253,
                        2363.0407,
                        2369.1763,
                        2345.471,
                        2362.5503,
                        2373.9687,
                        2366.6731,
                        2360.6276,
                        2377.1648,
                        2406.32,
                        2405.7443,
                        2391.8439,
                        2375.0886,
                        2364.368,
                        2377.1968,
                        2375.108,
                        2349.8166,
                        2333.2061,
                        2328.9907,
                        2334.4401,
                        2345.919,
                        2333.9849,
                        2328.9955,
                        2353.4886,
                        2334.1768,
                        2329.4561,
                        2340.4324,
                        2297.2546,
                        2296.7333,
                        2318.6896,
                        2338.6608,
                        2337.4961,
                        2339.5909,
                        2354.3807,
                        2360.3275,
                        2354.1149,
                        2337.7043,
                        2316.9731,
                        2316.3559,
                        2325.2856,
                        2338.2743,
                        2311.7254,
                        2303.1703,
                        2319.2808,
                        2319.4716,
                        2331.488,
                        2341.1885,
                        2320.6282,
                        2301.2191,
                        2294.8778,
                        2307.75,
                        2292.4076,
                        2273.2888,
                        2257.0875,
                        2269.2796,
                        2264.7046,
                        2256.9628,
                        2254.037,
                        2243.3453,
                        2242.375,
                        2252.3428,
                        2272.5239,
                        2277.6077,
                        2268.4596,
                        2240.2762,
                        2228.2251,
                        2233.6274,
                        2254.4009,
                        2240.7866,
                        2245.6461,
                        2251.1021,
                        2226.97,
                        2238.3685,
                        2241.4449,
                        2224.2438,
                        2235.1632,
                        2251.8623,
                        2263.2776,
                        2240.5023,
                        2242.1868,
                        2251.9333,
                        2264.7769,
                        2252.2986,
                        2275.2903,
                        2312.3768,
                        2301.7172,
                        2300.7323,
                        2297.7485,
                        2287.0372,
                        2318.4274,
                        2334.7969,
                        2342.3931,
                        2365.1206,
                        2372.2644,
                        2369.5803,
                        2358.0441,
                        2387.8643,
                        2395.4989,
                        2389.2438,
                        2402.0158,
                        2403.7938,
                        2408.0997,
                        2422.2881,
                        2426.2527,
                        2424.397,
                        2425.155,
                        2457.2168,
                        2473.1576,
                        2481.187,
                        2483.8008,
                        2515.1158,
                        2513.7792,
                        2500.3534,
                        2533.0204,
                        2523.4008,
                        2516.3003,
                        2528.5915,
                        2514.7478,
                        2496.1816,
                        2478.6718,
                        2475.2933,
                        2472.8807,
                        2458.6765,
                        2430.4655,
                        2439.5328,
                        2419.0838,
                        2394.1812,
                        2402.293,
                        2394.9855,
                        2376.4422,
                        2349.219,
                        2333.7456,
                        2321.7108,
                        2306.8005,
                        2281.8846,
                        2291.4438,
                        2289.4771,
                        2275.8802,
                        2272.1995,
                        2263.6231,
                        2262.3901,
                        2276.9812,
                        2262.4321,
                        2254.0003,
                        2251.7318,
                        2254.7668,
                        2259.4492,
                        2251.8054,
                        2228.9581,
                        2244.2741,
                        2247.4829,
                        2244.0354,
                        2239.5655,
                        2251.6393,
                        2267.1235,
                        2277.3449,
                        2240.6307,
                        2218.7122,
                        2194.3012,
                        2155.9938,
                        2186.0945,
                        2184.8579,
                        2163.0711,
                        2149.4683,
                        2137.4043,
                        2143.0836,
                        2165.8919,
                        2132.0411,
                        2126.7521,
                        2125.2782,
                        2103.7772,
                        2084.229,
                        2081.0099,
                        2085.3304,
                        2063.4339,
                        2070.2413,
                        2064.5118,
                        2033.0688,
                        2042.956,
                        2052.4503,
                        2064.2474,
                        2082.226,
                        2034.732,
                        2028.1371,
                        2049.2773,
                        2003.6801,
                        1998.1333,
                        2010.6015,
                        2032.3756,
                        2032.0118,
                        2023.5228,
                        2018.5413,
                        2031.8865,
                        2022.9192,
                        2038.6799,
                        2068.3548,
                        2060.1917,
                        2064.247,
                        2067.9168,
                        2067.9806,
                        2079.9174,
                        2100.4268,
                        2115.3337,
                        2110.4786,
                        2126.3414,
                        2133.7568,
                        2129.8788,
                        2109.3286,
                        2111.6195,
                        2111.9482,
                        2110.7015,
                        2150.1973,
                        2173.4493,
                        2180.1216,
                        2168.8013,
                        2176.6624,
                        2196.3198,
                        2213.8141,
                        2208.884,
                        2206.5249,
                        2204.1585,
                        2207.2121,
                        2235.2293,
                        2278.7936,
                        2311.0741,
                        2325.7242,
                        2339.0504,
                        2334.1045,
                        2335.969,
                        2360.843,
                        2343.9361,
                        2339.3932,
                        2337.9225,
                        2326.9846,
                        2328.0241,
                        2303.8085,
                        2263.1579,
                        2238.6873,
                        2226.3774,
                        2210.3795,
                        2190.3597,
                        2187.2183,
                        2169.8828,
                        2161.4509,
                        2169.7531,
                        2130.3993,
                        2115.207,
                        2113.4296,
                        2117.0408,
                        2128.0999,
                        2112.2447,
                        2089.8969,
                        2094.9125,
                        2073.3803,
                        2086.6283,
                        2116.0152,
                        2091.1894,
                        2104.1004,
                        2096.5516,
                        2064.4492,
                        2053.0264,
                        2060.1019,
                        2042.5605,
                        1994.2493,
                        2031.8011,
                        2027.9412,
                        2014.7959,
                        2011.7088,
                        2019.2499,
                        1997.5763,
                        1961.7884,
                        1925.5425,
                        1948.4559,
                        1964.9613,
                        1969.9211,
                        1956.9205,
                        1956.655,
                        1959.9726,
                        1960.0318,
                        1943.1579,
                        1937.6818,
                        1942.1236,
                        1944.8972,
                        1910.2432,
                        1921.4211,
                        1912.0578,
                        1880.9046,
                        1889.1779,
                        1886.187,
                        1887.0386,
                        1893.7936,
                        1888.928,
                        1898.4738,
                        1898.4255,
                        1881.5816,
                        1877.5681,
                        1869.9423,
                        1868.3568,
                        1877.1531,
                        1881.103,
                        1886.1023,
                        1885.2409,
                        1875.2811,
                        1894.548,
                        1911.2487,
                        1926.4333,
                        1940.6061,
                        1937.9535,
                        1942.6646,
                        1942.9063,
                        1927.614,
                        1936.8868,
                        1950.4928,
                        1962.6657,
                        1967.2685,
                        1960.5711,
                        1953.9442,
                        1950.3966,
                        1953.3633,
                        1946.4864,
                        1935.6232,
                        1929.0027,
                        1936.8015,
                        1920.9877,
                        1925.9075,
                        1933.3708,
                        1918.2264,
                        1906.3555,
                        1904.3069,
                        1916.3895,
                        1948.2918,
                        2040.8759,
                        2078.1516,
                        2071.352,
                        2038.7216,
                        2034.5187,
                        2023.787,
                        2032.9378,
                        2095.2754,
                        2063.3626,
                        2063.1207,
                        2066.3593,
                        2038.7599,
                        2007.334,
                        1991.7323,
                        1988.1241,
                        1992.2095,
                        1981.069,
                        2011.0628,
                        2032.0748,
                        2001.2443,
                        2002.2468,
                        2013.7531,
                        2036.6341,
                        2068.9197,
                        2057.9353,
                        2071.6652,
                        2075.2972,
                        2051.0479,
                        2055.3821,
                        2053.3086,
                        2035.165,
                        1999.8995,
                        1980.749,
                        1960.001,
                        1938.9958,
                        1915.405,
                        1873.1967,
                        1854.3023,
                        1842.029,
                        1826.4802,
                        1788.793,
                        1784.5286,
                        1784.2464,
                        1784.1389,
                        1792.0194,
                        1768.1328,
                        1748.3332,
                        1735.8987,
                        1726.8437,
                        1721.7296,
                        1703.9566,
                        1682.1281,
                        1670.3244,
                        1672.7735,
                        1665.076,
                        1662.4371,
                        1678.9181,
                        1664.9615,
                        1650.7688,
                        1649.12,
                        1663.9783,
                        1648.4201,
                        1632.9681,
                        1631.4152,
                        1644.4952,
                        1644.3885,
                        1643.7349,
                        1634.799,
                        1616.8816,
                        1594.1656,
                        1606.3791,
                        1611.9752,
                        1614.6306,
                        1631.816,
                        1613.6299,
                        1592.1474,
                        1571.6677,
                        1555.7743,
                        1572.8071,
                        1592.8286,
                        1593.531,
                        1568.262,
                        1584.4239,
                        1579.3638,
                        1585.3535,
                        1605.3267,
                        1604.0806,
                        1573.0426,
                        1567.5083,
                        1579.6415,
                        1572.778,
                        1561.7253,
                        1565.2409,
                        1579.9026,
                        1599.9341,
                        1616.9126,
                        1601.2963,
                        1587.5492,
                        1595.6278,
                        1619.3172,
                        1605.4157,
                        1587.1653,
                        1577.278,
                        1583.4595,
                        1576.0975,
                        1595.7375,
                        1626.2325,
                        1638.3299,
                        1643.3564,
                        1643.4883,
                        1647.8179,
                        1660.7065,
                        1665.0143,
                        1664.1327,
                        1652.8096,
                        1637.6792,
                        1643.6309,
                        1636.1404,
                        1640.4392,
                        1649.5374,
                        1649.7569,
                        1627.0846,
                        1617.3847,
                        1613.3805,
                        1609.8913,
                        1605.5024,
                        1612.6056,
                        1610.575,
                        1596.4176,
                        1576.3578,
                        1552.444,
                        1549.9969,
                        1558.4215,
                        1563.8704,
                        1553.1992,
                        1557.8178,
                        1541.4977,
                        1508.5223,
                        1530.2748,
                        1534.165,
                        1543.9667,
                        1550.2491,
                        1535.3874,
                        1481.887,
                        1452.9755,
                        1446.6089,
                        1462.5532,
                        1509.3395,
                        1492.6442,
                        1491.205,
                        1498.2902,
                        1475.361,
                        1492.4909,
                        1485.0817,
                        1468.7909,
                        1457.8229,
                        1465.9182,
                        1477.5227,
                        1486.7624,
                        1489.5002,
                        1481.1564,
                        1479.6719,
                        1476.0076,
                        1475.2831,
                        1478.2366,
                        1468.2197,
                        1463.2004,
                        1470.2214,
                        1482.0831,
                        1483.8921,
                        1480.6007,
                        1470.4254,
                        1462.65,
                        1459.6848,
                        1445.2468,
                        1443.042,
                        1456.0827,
                        1470.7485,
                        1467.2698,
                        1446.2962,
                        1446.9313,
                        1453.8958,
                        1457.3211,
                        1450.519,
                        1442.0609,
                        1433.3531,
                        1437.7289,
                        1465.2587,
                        1481.9425,
                        1485.4939,
                        1483.3037,
                        1480.2391,
                        1481.3357,
                        1470.5253,
                        1467.3019,
                        1473.4925,
                        1485.485,
                        1483.235,
                        1470.5945,
                        1468.1221,
                        1463.2237,
                        1438.4831,
                        1455.3775,
                        1449.0765,
                        1438.829,
                        1437.3352,
                        1455.905,
                        1452.0646,
                        1479.4275,
                        1489.7284,
                        1457.728,
                        1439.0952,
                        1424.5782,
                        1433.5603,
                        1446.7317,
                        1438.459,
                        1430.5832,
                        1412.3648,
                        1406.7981,
                        1414.0285,
                        1418.9362,
                        1414.4487,
                        1395.867,
                        1385.1163,
                        1392.5399,
                        1411.1227,
                        1414.9467,
                        1414.3838,
                        1439.6363,
                        1454.0532,
                        1431.7336,
                        1408.0299,
                        1414.9973,
                        1430.7595,
                        1457.9624,
                        1465.6907,
                        1455.7107,
                        1472.4314,
                        1464.8714,
                        1491.947,
                        1520.2428,
                        1500.4318,
                        1511.0467,
                        1544.298,
                        1564.1726,
                        1559.1722,
                        1564.6191,
                        1547.2196,
                        1562.8011,
                        1591.8927,
                        1587.4295,
                        1572.6726,
                        1551.907,
                        1527.6674,
                        1508.7246,
                        1533.0741,
                        1535.5421,
                        1521.8649,
                        1501.9432,
                        1490.9867,
                        1502.5782,
                        1508.6461,
                        1513.7993,
                        1517.061,
                        1492.7231,
                        1495.3095,
                        1489.0419,
                        1475.3101,
                        1470.3911,
                        1481.4997,
                        1463.0981,
                        1476.1539,
                        1532.2307,
                        1493.1353,
                        1490.9273,
                        1491.9517,
                        1494.4407,
                        1505.2024,
                        1518.4505,
                        1514.3414,
                        1500.9743,
                        1488.5916,
                        1498.1067,
                        1501.3161,
                        1509.1611,
                        1507.8068,
                        1483.6792,
                        1496.0872,
                        1509.3616,
                        1520.6094,
                        1519.4936,
                        1482.9616,
                        1507.9333,
                        1521.4179,
                        1540.3694,
                        1571.9202,
                        1542.8107,
                        1534.5516,
                        1524.2925,
                        1519.0536,
                        1537.8869,
                        1554.8758,
                        1573.0505,
                        1569.9463,
                        1550.5446,
                        1569.4026,
                        1560.3892,
                        1558.2068,
                        1543.8364,
                        1501.8537,
                        1480.5178,
                        1469.1741,
                        1467.4422,
                        1465.2337,
                        1446.5954,
                        1450.1914,
                        1442.3266,
                        1431.0462,
                        1418.6614,
                        1398.9089,
                        1389.008,
                        1368.681,
                        1347.7882,
                        1340.6838,
                        1374.5255,
                        1385.435,
                        1367.494,
                        1344.8026,
                        1349.5384,
                        1350.107,
                        1336.9099,
                        1339.9537,
                        1357.1051,
                        1360.6274,
                        1335.7542,
                        1351.0943,
                        1369.0254,
                        1366.9967,
                        1347.6914,
                        1324.6616,
                        1346.5721,
                        1363.0057,
                        1340.0429,
                        1344.2718,
                        1342.4213,
                        1346.845,
                        1348.6928,
                        1339.7673,
                        1363.016,
                        1372.8921,
                        1352.5557,
                        1337.6318,
                        1383.2687,
                        1375.8663,
                        1385.5951,
                        1391.4969,
                        1386.1676,
                        1371.7463,
                        1398.1688,
                        1393.4715,
                        1386.7761,
                        1383.4824,
                        1358.8338,
                        1421.289,
                        1401.3586,
                        1391.0929,
                        1420.1779,
                        1385.5298,
                        1380.8462,
                        1371.2691,
                        1356.108,
                        1345.2882,
                        1371.161,
                        1333.9086,
                        1301.3385,
                        1289.3845,
                        1294.5392,
                        1271.2887,
                        1270.6664,
                        1268.8081,
                        1263.399,
                        1256.7855,
                        1256.7536,
                        1239.2007,
                        1231.3288,
                        1243.2108,
                        1267.8749,
                        1240.771,
                        1224.2519,
                        1208.9683,
                        1199.4989,
                        1198.5702,
                        1190.6746,
                        1189.8206,
                        1191.9535,
                        1189.7291,
                        1179.7659,
                        1177.0993,
                        1152.2952,
                        1149.6761,
                        1147.4009,
                        1132.2519,
                        1166.9101,
                        1164.3033,
                        1146.5218,
                        1136.748,
                        1145.4093,
                        1144.7188,
                        1157.7868,
                        1158.2169,
                        1162.2624,
                        1178.2541,
                        1184.5075,
                        1180.1572,
                        1176.8132,
                        1169.7064,
                        1163.4926,
                        1181.6507,
                        1161.4504,
                        1151.4424,
                        1150.457,
                        1153.8422,
                        1155.4769,
                        1157.7085,
                        1169.6855,
                        1174.0779,
                        1164.3711,
                        1145.4492,
                        1164.5056,
                        1171.1447,
                        1176.666,
                        1176.7869,
                        1163.7415,
                        1170.79,
                        1164.5024,
                        1153.9422,
                        1152.0725,
                        1168.1826,
                        1191.3567,
                        1193.593,
                        1176.3854,
                        1161.2885,
                        1161.9614,
                        1166.213,
                        1146.582,
                        1142.6022,
                        1138.2373,
                        1130.1698,
                        1133.6913,
                        1120.1092,
                        1127.0395,
                        1137.7472,
                        1142.896,
                        1137.9105,
                        1114.9817,
                        1112.5403,
                        1125.9562,
                        1136.0469,
                        1134.0043,
                        1162.3286,
                        1172.0941,
                        1160.0181,
                        1155.6969,
                        1168.0694,
                        1171.3111,
                        1168.163,
                        1182.9366,
                        1195.3094,
                        1198.9279,
                        1197.1632,
                        1192.3519,
                        1218.3206,
                        1214.0499,
                        1200.7572,
                        1205.2578,
                        1216.495,
                        1211.148,
                        1208.9524,
                        1201.3154,
                        1192.8537,
                        1198.9347,
                        1180.3871,
                        1199.0849,
                        1209.3391,
                        1202.7845,
                        1190.4794,
                        1198.7877,
                        1213.1257,
                        1205.9357,
                        1204.4942,
                        1208.3641,
                        1185.4927,
                        1198.385,
                        1214.4845,
                        1220.448,
                        1220.4889,
                        1223.1682,
                        1229.5898,
                        1205.5114,
                        1218.7979,
                        1237.1117,
                        1239.2181,
                        1227.0503,
                        1232.4669,
                        1243.209,
                        1249.2138,
                        1248.1844,
                        1242.4542,
                        1239.5102,
                        1243.0299,
                        1245.4227,
                        1247.9434,
                        1256.701,
                        1275.9647,
                        1282.3406,
                        1293.8156,
                        1299.1604,
                        1314.121,
                        1337.2555,
                        1339.8119,
                        1342.1687,
                        1349.0102,
                        1340.8602,
                        1343.6299,
                        1371.014,
                        1363.2983,
                        1362.591,
                        1355.2531,
                        1341.2401,
                        1341.5439,
                        1370.5124,
                        1353.9981,
                        1350.8665,
                        1355.4621,
                        1361.7434,
                        1364.6538,
                        1361.7182,
                        1356.5747,
                        1366.5867,
                        1377.3113,
                        1391.4267,
                        1400.8302,
                        1381.2439,
                        1386.1147,
                        1374.2069,
                        1364.3936,
                        1360.4771,
                        1360.9262,
                        1365.2252,
                        1360.8249,
                        1355.4153,
                        1346.6829,
                        1345.2786,
                        1355.3297,
                        1349.7229,
                        1339.563,
                        1313.3139,
                        1291.6451,
                        1283.8723,
                        1284.3459,
                        1266.3686,
                        1271.294,
                        1254.0983,
                        1257.1505,
                        1257.1719,
                        1222.2408,
                        1234.799,
                        1230.9887,
                        1232.9991,
                        1226.4857,
                        1211.399,
                        1202.2671,
                        1228.2268,
                        1212.9433,
                        1213.7291,
                        1212.3845,
                        1216.7423,
                        1235.3537,
                        1220.4742,
                        1220.0789,
                        1207.6746,
                        1195.9587,
                        1196.2967,
                        1208.0862,
                        1206.316,
                        1215.3936,
                        1226.0672,
                        1222.462,
                        1210.3627,
                        1209.7956,
                        1243.0337,
                        1219.796,
                        1211.3455,
                        1214.0644,
                        1225.5924,
                        1234.1736,
                        1217.9855,
                        1220.7174,
                        1233.7958,
                        1232.1287,
                        1232.5248,
                        1238.3192,
                        1228.3998,
                        1207.8517,
                        1195.8392,
                        1207.9367,
                        1209.7368,
                        1202.2547,
                        1208.3866,
                        1198.7913,
                        1214.3834,
                        1218.223,
                        1211.1797,
                        1208.3757,
                        1214.1277,
                        1199.2361,
                        1153.7891,
                        1167.3223,
                        1170.0684,
                        1160.9813,
                        1150.1449,
                        1137.9344,
                        1146.3155,
                        1125.702,
                        1096.7527,
                        1094.1974,
                        1114.3469,
                        1129.4809,
                        1135.3578,
                        1150.3509,
                        1172.6278,
                        1178.278,
                        1173.8975,
                        1169.6442,
                        1160.1858,
                        1135.7422,
                        1117.7495,
                        1114.0505,
                        1111.8419,
                        1106.1014,
                        1097.6738,
                        1078.3483,
                        1048.0564,
                        1024.5604,
                        1017.0326,
                        1016.2312,
                        1015.8832,
                        1017.2449,
                        993.35545,
                        979.47892,
                        977.47799,
                        977.03765,
                        981.83418,
                        991.09197,
                        980.8236,
                        974.18685,
                        966.7265,
                        971.96738,
                        968.49296,
                        955.36559,
                        949.36119,
                        951.5422,
                        952.60575,
                        951.81574,
                        957.01965,
                        964.51755,
                        975.23111,
                        986.52944,
                        938.98148,
                        943.72907,
                        934.25431,
                        924.82883,
                        924.28417,
                        936.82467,
                        958.84307,
                        945.48585,
                        952.59202,
                        924.34634,
                        924.44388,
                        945.97586,
                        952.49175,
                        932.89156,
                        932.52605,
                        924.80315,
                        929.42552,
                        934.4474,
                        929.47549,
                        920.30277,
                        925.43124,
                        918.38239,
                        931.59547,
                        931.29991,
                        921.51959,
                        907.62631,
                        896.3468,
                        894.57451,
                        895.21351,
                        914.34446,
                        928.5167,
                        934.54488,
                        933.39356,
                        924.56475,
                        909.01716,
                        908.98877,
                        924.91287,
                        925.68159,
                        914.91369,
                        907.35236,
                        913.61528,
                        930.14074,
                        933.92542,
                        916.35462,
                        917.60628,
                        911.12556,
                        906.42662,
                        911.49133,
                        920.5675,
                        921.89214,
                        938.01351,
                        952.12104,
                        942.74007,
                        936.78332,
                        933.71041,
                        927.74441,
                        927.22672,
                        904.47486,
                        946.40875,
                        946.75489,
                        930.60026,
                        939.36378,
                        954.52273,
                        936.67145,
                        944.84076,
                        940.87591,
                        927.46973,
                        936.4283,
                        946.15208,
                        949.56109,
                        953.01197,
                        956.0623,
                        932.8978,
                        936.77454,
                        929.69987,
                        922.29051,
                        931.02801,
                        949.63939,
                        959.97017,
                        961.83283,
                        964.94914,
                        970.80496,
                        971.0195,
                        980.26397,
                        991.07749,
                        999.01096,
                        1005.3167,
                        991.45426,
                        987.81692,
                        1005.5249,
                        1014.6983,
                        1020.676,
                        1021.2324,
                        1014.7277,
                        1009.1409,
                        1013.2674,
                        1011.091,
                        1006.0843,
                        1018.3466,
                        1029.3148,
                        1023.307,
                        1009.3113,
                        1004.4442,
                        981.7637,
                        1010.0299,
                        969.69214,
                        977.97897,
                        959.10578,
                        940.86303,
                        946.58507,
                        936.98143,
                        946.33015,
                        907.77244,
                        923.86854,
                        935.23709,
                        917.25904,
                        890.31986,
                        880.60468,
                        883.55901,
                        864.81044,
                        848.39779,
                        900.06327,
                        885.42655,
                        880.73353,
                        890.21974,
                        892.77778,
                        882.58612,
                        870.7304,
                        848.85179,
                        847.47136,
                        855.46055,
                        857.05707,
                        858.12052,
                        862.36797,
                        869.4401,
                        876.87971,
                        876.15418,
                        858.19538,
                        855.3729,
                        859.63435,
                        856.15844,
                        860.1041,
                        868.56747,
                        867.96541,
                        867.56242,
                        873.9346,
                        865.38744,
                        867.39191,
                        879.63795,
                        869.88499,
                        857.68212,
                        856.91784,
                        860.73798,
                        879.94036,
                        879.18406,
                        870.17085,
                        874.29185,
                        868.50442,
                        865.98586,
                        880.97944,
                        898.09665,
                        896.38325,
                        896.2104,
                        884.40706,
                        921.57849,
                        921.47484,
                        907.68019,
                        897.76891,
                        885.83093,
                        874.08233,
                        924.72282,
                        893.21565,
                        883.56519,
                        884.66061,
                        886.745,
                        889.1031,
                        896.9158,
                        915.97593,
                        924.61228,
                        878.21202,
                        876.85011,
                        893.52656,
                        897.1201,
                        883.9605,
                        880.5791,
                        929.46904,
                        920.22408,
                        901.90766,
                        911.75856,
                        907.38999,
                        905.34026,
                        921.58866,
                        907.74576,
                        931.46712,
                        875.70332,
                        899.34609,
                        902.95335,
                        900.86229,
                        892.2612,
                        866.35995,
                        861.28516,
                        896.37029,
                        915.15156,
                        902.09279,
                        888.13996,
                        888.32213,
                        890.88863,
                        884.04758,
                        882.01549,
                        886.67197,
                        916.21155,
                        901.72914,
                        894.01083,
                        883.4727,
                        863.14611,
                        865.19195,
                        917.45747,
                        877.9836,
                        880.6427,
                        896.34306,
                        877.64932,
                        872.3145,
                        876.07868,
                        873.33685,
                        881.30469,
                        874.52483,
                        875.70519,
                        864.36878,
                        837.85662,
                        838.67274,
                        855.78032,
                        855.65847,
                        841.33658,
                        867.43066,
                        836.26277,
                        844.243,
                        860.12467,
                        853.89806,
                        840.34863,
                        828.86689,
                        825.56866,
                        838.03498,
                        815.83641,
                        864.49515,
                        835.26934,
                        847.67842,
                        840.03457,
                        826.74065,
                        825.82546,
                        813.83912,
                        789.86884,
                        801.86058,
                        811.89982,
                        836.48134,
                        809.12892,
                        791.22978,
                        786.10535,
                        776.02172,
                        784.86457,
                        816.44275,
                        791.92551,
                        805.97533,
                        809.30008,
                        780.0202,
                        779.75588,
                        793.30915,
                        780.97681,
                        761.06955,
                        757.31009,
                        787.42288,
                        772.62631,
                        793.52857,
                        781.65157,
                        773.99966,
                        771.12931,
                        755.19261,
                        748.96006,
                        763.54271,
                        716.83111,
                        722.56146,
                        737.89291,
                        738.71177,
                        750.15279,
                        749.58126,
                        732.2976,
                        731.49334,
                        725.16864,
                        725.50728,
                        725.65455,
                        709.01364,
                        713.58324,
                        711.92136,
                        714.2479,
                        721.40524,
                        720.87088,
                        721.74029,
                        699.51726,
                        734.48848,
                        737.21787,
                        729.62857,
                        728.50324,
                        725.15249,
                        721.92645,
                        723.94887,
                        727.59606,
                        733.72499,
                        718.07592,
                        738.62583,
                        740.18307,
                        736.73927,
                        751.29765,
                        758.91121,
                        765.52103,
                        788.12867,
                        797.487,
                        772.13476,
                        787.43707,
                        799.34286,
                        805.15973,
                        797.38936,
                        816.28363,
                        819.84909,
                        799.41813,
                        791.77595,
                        797.58769,
                        796.08753,
                        797.03178,
                        780.49671,
                        794.02347,
                        782.93758,
                        775.48167,
                        776.74849,
                        771.81475,
                        756.35437,
                        743.15168,
                        740.16117,
                        721.46507,
                        721.66604,
                        709.8741,
                        702.75881,
                        689.56268,
                        684.86942,
                        679.77311,
                        672.02485,
                        670.44706,
                        656.14435,
                        636.99259,
                        643.29892,
                        632.82064,
                        633.42369,
                        619.51116,
                        605.13314,
                        620.59596,
                        635.785,
                        616.3567,
                        596.99798,
                        613.11863,
                        605.07588,
                        620.69776,
                        594.69374,
                        588.55479,
                        594.76133,
                        586.02562,
                        594.91572,
                        602.83316,
                        591.86974,
                        593.65711,
                        592.54173,
                        613.90149,
                        580.35001,
                        596.5757,
                        590.87397,
                        591.27896,
                        590.48954,
                        575.67064,
                        574.32757,
                        587.22148,
                        587.43143,
                        590.86333,
                        571.8891,
                        580.53291,
                        568.9945,
                        575.0063,
                        561.39911,
                        551.07996,
                        559.88897,
                        575.22203,
                        578.43081,
                        572.9447,
                        569.60145,
                        557.36973,
                        561.47412,
                        545.77297,
                        569.77261,
                        567.20434,
                        561.86442,
                        575.84906,
                        578.00199,
                        568.9594,
                        564.9034,
                        568.73186,
                        574.15708,
                        571.14324,
                        558.16125,
                        556.38628,
                        562.53382,
                        567.44519,
                        563.34602,
                        550.55867,
                        542.23849,
                        556.47312,
                        559.56683,
                        546.69012,
                        551.3003,
                        550.45375,
                        540.42106,
                        556.23956,
                        541.30452,
                        556.16475,
                        541.73357,
                        545.95954,
                        545.61164,
                        547.54646,
                        540.79315,
                        544.4161,
                        557.33925,
                        550.5925,
                        542.07203,
                        532.37637,
                        529.39935,
                        531.01769,
                        550.98215,
                        534.40766,
                        530.39801,
                        531.07058,
                        537.99603,
                        539.38862,
                        532.39671,
                        525.83827,
                        525.74801,
                        529.27303,
                        527.4444,
                        524.40821,
                        512.74855,
                        510.83871,
                        516.02767,
                        516.75114,
                        514.06136,
                        511.82998,
                        509.46328,
                        517.29761,
                        521.58315,
                        518.23208,
                        515.10522,
                        510.72923,
                        518.50051,
                        524.13075,
                        510.10037,
                        514.61602,
                        520.78955,
                        508.69244,
                        513.34037,
                        507.20258,
                        499.92623,
                        508.88545,
                        513.74567,
                        506.91191,
                        501.58443,
                        502.41307,
                        505.35647,
                        502.45032,
                        491.46353,
                        487.50764,
                        484.85314,
                        497.31339,
                        496.65425,
                        503.5787,
                        483.99855,
                        490.87007,
                        467.55966,
                        463.67273,
                        487.344,
                        486.34435,
                        477.84616,
                        489.45815,
                        483.4717,
                        486.28826,
                        487.26532,
                        498.92176,
                        477.74466,
                        497.27029,
                        499.88003,
                        486.85672,
                        488.19777,
                        486.5403,
                        485.66897,
                        484.1266,
                        478.65739,
                        468.70143,
                        465.85865,
                        468.55897,
                        469.48092,
                        480.60235,
                        473.62297,
                        465.90206,
                        455.51422,
                        457.48389,
                        484.03066,
                        484.98707,
                        483.8581,
                        487.30135,
                        501.57486,
                        489.62471,
                        471.47865,
                        472.4189,
                        469.17484,
                        461.87322,
                        462.92337,
                        466.50793,
                        471.13708,
                        469.58358,
                        461.3809,
                        470.45595,
                        478.25816,
                        506.13762,
                        494.45322,
                        492.46758,
                        515.05495,
                        483.83987,
                        477.20689,
                        483.55127,
                        468.20591,
                        465.99168,
                        468.07377,
                        459.20745,
                        448.66914,
                        450.76348,
                        451.90625,
                        443.50306,
                        444.27771,
                        452.84666,
                        464.74163,
                        455.10896,
                        455.38916,
                        451.71727,
                        445.69935,
                        452.15536,
                        441.49668,
                        445.36341,
                        446.37636,
                        447.98118,
                        464.79297,
                        457.01753,
                        442.25461,
                        429.66692,
                        426.96328,
                        438.85786,
                        455.4961,
                        449.87288,
                        440.4862,
                        454.02208,
                        457.04493,
                        445.7318,
                        440.24181,
                        444.9419,
                        435.09089,
                        436.17045,
                        434.03907,
                        442.30755,
                        431.17024,
                        441.09697,
                        415.31279,
                        414.79814,
                        434.71302,
                        439.49318,
                        430.08082,
                        428.69001,
                        438.62048,
                        435.93985,
                        423.18934,
                        422.38888,
                        413.39487,
                        415.66209,
                        436.90239,
                        437.28189,
                        426.54273,
                        421.40958,
                        407.62277,
                        406.04777,
                        414.99162,
                        426.11256,
                        422.25513,
                        417.26357,
                        408.85817,
                        406.24087,
                        416.52766,
                        419.344,
                        429.99105,
                        409.08493,
                        415.56796,
                        418.22031,
                        418.98141,
                        427.70567,
                        416.91105,
                        402.51016,
                        400.40468,
                        404.51031,
                        404.9021,
                        404.2586,
                        406.67364,
                        401.27474,
                        398.95363,
                        395.38938,
                        399.91752,
                        400.7794,
                        393.62337,
                        399.76667,
                        400.69127,
                        394.2443,
                        385.55366,
                        376.36427,
                        389.25207,
                        388.76048,
                        385.86873,
                        384.71325,
                        392.47595,
                        397.82558,
                        386.94763,
                        388.70763,
                        385.26638,
                        386.13786,
                        386.40808,
                        387.44074,
                        400.1507,
                        391.26017,
                        383.01341,
                        376.77126,
                        371.83855,
                        376.92036,
                        378.21081,
                        375.64415,
                        380.25951,
                        379.48567,
                        373.86233,
                        368.57751,
                        362.50692,
                        378.55018,
                        383.70534,
                        384.73347,
                        370.98263,
                        365.70348,
                        366.88526,
                        366.53461,
                        364.21352,
                        367.20046,
                        375.27643,
                        377.57399,
                        364.45953,
                        357.68505,
                        366.75748,
                        373.28642,
                        370.04527,
                        354.70197,
                        356.34846,
                        373.47426,
                        369.18847,
                        372.07825,
                        375.58367,
                        358.32168,
                        342.02029,
                        351.87424,
                        364.70183,
                        362.94312,
                        361.49866,
                        358.35489,
                        353.03635,
                        358.44394,
                        360.0092,
                        359.69388,
                        370.39645,
                        369.12526,
                        356.66968,
                        356.62275,
                        360.04623,
                        351.69756,
                        362.21526,
                        356.36032,
                        355.19824,
                        352.94663,
                        338.55736,
                        340.51768,
                        355.34819,
                        348.64132,
                        355.66969,
                        341.59388,
                        367.63401,
                        332.89711,
                        337.51505,
                        329.17349,
                        349.6008,
                        333.36838,
                        333.1061,
                        327.34892,
                        316.82808,
                        319.50711,
                        333.53951,
                        338.79901,
                        329.30963,
                        330.5232,
                        320.15763,
                        317.56359,
                        330.28232,
                        335.49817,
                        334.39795,
                        328.15374,
                        325.18901,
                        332.30431,
                        334.17013,
                        325.40752,
                        320.11295,
                        317.10739,
                        330.01924,
                        330.26429,
                        343.23088,
                        327.28837,
                        327.82368,
                        329.94367,
                        330.16215,
                        327.43909,
                        339.38913,
                        333.29835,
                        324.06274,
                        321.87745,
                        305.12225,
                        313.41212,
                        291.50408,
                        311.38978,
                        312.86683,
                        318.96762,
                        325.9517,
                        325.84011,
                        312.80794,
                        318.49334,
                        325.59933,
                        322.44224,
                        315.71972,
                        299.20219,
                        313.94546,
                        323.54821,
                        319.26806,
                        320.84632,
                        312.00765,
                        313.82928,
                        305.99897,
                        300.00968,
                        305.36562,
                        299.17482,
                        300.60054,
                        305.01268,
                        305.36802,
                        302.07809,
                        299.85553,
                        294.76836,
                        291.40766,
                        294.33195,
                        302.76808,
                        302.71486,
                        293.92617,
                        302.46173,
                        305.09922,
                        305.17865,
                        301.03515,
                        310.82961,
                        305.17089,
                        306.35236,
                        301.57459,
                        286.56838,
                        291.54007,
                        287.80605,
                        302.97155,
                        296.22376,
                        291.12673,
                        301.13588,
                        299.05812,
                        298.70813,
                        283.16519,
                        299.78121,
                        288.41761,
                        282.98859,
                        294.30011,
                        286.85188,
                        275.07728,
                        291.37076,
                        288.2163,
                        280.22178,
                        288.76415,
                        302.19413,
                        299.46715,
                        286.55844,
                        302.1977,
                        290.38844,
                        299.64472,
                        291.56173,
                        277.46889,
                        292.75395,
                        280.70634,
                        288.97493,
                        291.63336,
                        277.59812,
                        285.81179,
                        287.95834,
                        285.23057,
                        282.90358,
                        286.506,
                        283.44091,
                        273.47611,
                        271.6279,
                        287.31313,
                        263.67486,
                        280.46498,
                        271.90784,
                        280.66707,
                        262.20921,
                        274.39446,
                        280.04551,
                        280.29528,
                        268.07121,
                        264.79394,
                        278.47466,
                        290.69608,
                        279.09319,
                        279.27874,
                        286.66042,
                        269.90489,
                        274.28142,
                        267.22046,
                        276.61881,
                        276.39784,
                        269.71548,
                        258.62489,
                        257.51664,
                        269.64852,
                        249.00393,
                        262.39601,
                        258.94272,
                        269.53133,
                        247.79927,
                        245.61931,
                        250.58823,
                        257.18497,
                        252.2375,
                        259.70463,
                        259.86087,
                        258.06919,
                        271.07558,
                        258.09804,
                        259.18611,
                        240.33007,
                        264.5293,
                        258.75474,
                        261.47747,
                        253.5885,
                        246.47577,
                        245.36949,
                        250.18737,
                        260.05306,
                        253.45045,
                        240.89817,
                        260.95887,
                        256.79328,
                        254.88026,
                        259.86634,
                        262.28333,
                        262.60103,
                        255.309,
                        254.47001,
                        248.73485,
                        248.57797,
                        251.46082,
                        255.69845,
                        246.04137,
                        251.25064,
                        258.71494,
                        250.80412,
                        247.42985,
                        245.32639,
                        242.22178,
                        237.70233,
                        246.66964,
                        246.15961,
                        240.44405,
                        246.67704,
                        242.52497,
                        234.36846,
                        237.28637,
                        241.38131,
                        241.88621,
                        236.39085,
                        235.1368,
                        241.20876,
                        237.19275,
                        241.27372,
                        236.78618,
                        228.02834,
                        226.71238,
                        230.12652,
                        241.50815,
                        230.85584,
                        229.32082,
                        229.39752,
                        225.52187,
                        232.10574,
                        231.5241,
                        233.48686,
                        223.31913,
                        229.91585,
                        222.87024,
                        232.13904,
                        224.93946,
                        216.46943,
                        221.17701,
                        231.49897,
                        227.38399,
                        223.15494,
                        222.36495,
                        221.64053,
                        224.06047,
                        219.73918,
                        220.63266,
                        214.73484,
                        214.26675,
                        225.5827,
                        222.84153,
                        212.58412,
                        209.64017,
                        210.97743,
                        211.06631,
                        210.73655,
                        211.04238,
                        212.40598,
                        215.83443,
                        223.20235,
                        208.39498,
                        216.82278,
                        209.7319,
                        210.77166,
                        214.79096,
                        210.31558,
                        211.46582,
                        209.39377,
                        210.56728,
                        206.73122,
                        205.63366,
                        208.28987,
                        209.95779,
                        206.20483,
                        206.45045,
                        203.59296,
                        212.70245,
                        212.77258,
                        205.57936,
                        196.33995,
                        198.22876,
                        196.65434,
                        198.24546,
                        203.50421,
                        204.73587,
                        205.55298,
                        197.97383,
                        196.06649,
                        196.123,
                        200.94288,
                        201.24128,
                        202.80563,
                        202.39196,
                        200.51507,
                        204.89084,
                        203.04938,
                        200.79892,
                        192.26257,
                        194.14121,
                        189.18327,
                        186.11083,
                        186.10086,
                        191.16096,
                        189.28964,
                        190.04557,
                        194.70909,
                        193.86699,
                        189.6365,
                        189.63386,
                        193.32827,
                        192.85762,
                        189.22564,
                        201.06951,
                        202.27455,
                        191.65533,
                        195.46499,
                        191.68288,
                        188.36837,
                        187.0323,
                        189.80783,
                        195.30541,
                        193.62373,
                        188.65445,
                        191.28914,
                        186.44174,
                        179.70542,
                        181.75143,
                        185.97744,
                        184.3137,
                        181.69134,
                        182.39048,
                        192.73878,
                        194.8525,
                        186.7834,
                        188.29124,
                        181.94805,
                        185.83684,
                        185.71667,
                        188.61513,
                        188.58091,
                        175.31146,
                        178.53328,
                        193.88228,
                        194.32679,
                        194.54357,
                        199.63302,
                        194.13999,
                        192.12028,
                        198.01102,
                        194.41251,
                        183.95269,
                        176.21612,
                        188.85833,
                        178.62429,
                        179.21804,
                        179.73999,
                        177.92792,
                        181.40329,
                        177.04496,
                        173.8872,
                        174.09086,
                        179.69372,
                        179.8004,
                        181.14463,
                        180.04794,
                        180.66568,
                        178.92039,
                        174.98082,
                        177.1364,
                        175.32237,
                        178.65854,
                        175.7754,
                        175.82117,
                        176.41094,
                        175.9362,
                        172.33197,
                        170.81297,
                        167.97004,
                        175.17662,
                        164.58875,
                        169.70082,
                        172.65775,
                        167.98097,
                        161.60826,
                        165.83169,
                        169.32387,
                        170.34879,
                        174.5916,
                        165.25614,
                        165.28321,
                        163.05395,
                        164.50325,
                        160.92722,
                        162.83667,
                        162.98224,
                        170.69729,
                        156.55846,
                        168.09374,
                        167.30118,
                        162.71642,
                        156.5309,
                        153.2339,
                        155.30218,
                        159.58696,
                        165.11103,
                        160.64002,
                        160.53042,
                        171.34944,
                        168.29485,
                        163.32353,
                        158.24984,
                        162.52949,
                        163.26106,
                        165.26513,
                        161.1026,
                        166.53302,
                        164.74556,
                        146.75835,
                        153.1097,
                        150.71481,
                        155.95803,
                        148.00997,
                        159.43827,
                        153.20679,
                        149.77308,
                        147.23634,
                        149.84059,
                        159.34148,
                        162.1432,
                        161.85742,
                        153.68614,
                        162.39315,
                        149.54931,
                        152.67452,
                        153.54104,
                        152.36641,
                        152.52476,
                        148.68363,
                        148.87552,
                        146.45768,
                        145.52724,
                        141.46206,
                        149.66964,
                        149.46075,
                        146.54773,
                        150.53188,
                        151.6425,
                        156.96283,
                        155.18062,
                        144.39002,
                        138.01764,
                        148.72175,
                        150.61978,
                        144.42859,
                        152.08994,
                        150.48783,
                        141.03754,
                        139.14083,
                        148.05961,
                        150.25063,
                        148.04414,
                        145.59873,
                        148.77897,
                        146.64866,
                        154.47007,
                        142.5878,
                        140.03425,
                        144.89967,
                        147.00565,
                        146.97076,
                        144.78535,
                        143.13308,
                        139.60972,
                        135.30268,
                        140.67869,
                        140.53601,
                        142.38847,
                        146.85481,
                        146.45981,
                        150.89605,
                        145.23382,
                        145.39946,
                        144.83601,
                        145.34659,
                        144.60916,
                        134.04849,
                        133.62279,
                        144.84774,
                        146.29791,
                        135.85699,
                        142.93998,
                        143.97671,
                        154.32061,
                        144.5786,
                        136.43918,
                        138.8811,
                        142.94044,
                        132.55451,
                        126.11084,
                        132.25733,
                        136.74972,
                        133.46707,
                        136.85194,
                        138.05207,
                        134.02557,
                        132.20098,
                        133.17119,
                        135.09365,
                        125.81938,
                        134.6586,
                        133.20626,
                        133.29642,
                        133.54499,
                        120.20361,
                        118.70204,
                        125.12175,
                        134.10668,
                        132.42025,
                        133.91623,
                        125.04575,
                        124.4553,
                        131.72044,
                        126.72955,
                        131.60252,
                        129.09801,
                        133.10685,
                        134.46636,
                        130.1982,
                        134.75409,
                        127.0257,
                        136.24787,
                        137.63424,
                        136.92688,
                        130.22896,
                        118.5235,
                        130.16902,
                        128.30289,
                        124.42328,
                        129.39137,
                        136.39876,
                        124.13596,
                        130.85474,
                        117.09339,
                        122.75415,
                        128.36368,
                        124.84034,
                        123.00708,
                        127.99459,
                        126.25477,
                        120.18839,
                        124.30034,
                        122.70195,
                        123.65693,
                        120.51467,
                        127.22289,
                        137.89016,
                        128.26008,
                        127.04144,
                        129.54156,
                        121.62031,
                        128.63484,
                        128.87247,
                        132.29708,
                        118.59381,
                        120.2433,
                        128.15392,
                        125.29565,
                        122.68815,
                        132.40929,
                        129.19563,
                        122.45006,
                        112.80795,
                        120.44555,
                        119.72033,
                        131.71054,
                        127.83119,
                        129.8637,
                        117.14812,
                        122.85111,
                        113.99148,
                        116.85632,
                        118.51314,
                        126.15477,
                        117.85972,
                        123.18648,
                        116.64176,
                        108.28359,
                        107.99152,
                        119.23584,
                        119.18122,
                        119.03151,
                        118.02254,
                        117.76585,
                        118.2331,
                        115.00097,
                        115.33057,
                        113.11872,
                        123.69107,
                        125.91817,
                        120.64468,
                        116.78541,
                        121.00662,
                        114.35484,
                        115.5909,
                        117.92368,
                        114.8972,
                        114.81055,
                        116.7196,
                        117.34055,
                        117.4998,
                        109.54277,
                        116.21842,
                        110.32363,
                        125.00086,
                        117.09095,
                        120.74229,
                        109.00557,
                        111.51274,
                        114.52448,
                        105.74608,
                        106.02667,
                        108.89153,
                        106.37475,
                        112.15424,
                        115.72242,
                        117.65746,
                        108.67831,
                        109.06836,
                        117.153,
                        111.61993,
                        106.46093,
                        105.66325,
                        106.42369,
                        106.11727,
                        105.47325,
                        106.06268,
                        104.74067,
                        106.27957,
                        114.12178,
                        114.13545,
                        112.89618,
                        107.01319,
                        112.3045,
                        109.7122,
                        103.03535,
                        106.73362,
                        112.66992,
                        109.53536,
                        102.87051,
                        108.4665,
                        102.26954,
                        105.13867,
                        108.69684,
                        104.23362,
                        108.56588,
                        102.69013,
                        105.61379,
                        100.00399,
                        101.20961,
                        105.48395,
                        102.26716,
                        105.79349,
                        100.83445,
                        108.21619,
                        103.83167,
                        104.67965,
                        102.03905,
                        108.2433,
                        107.10721,
                        106.49359,
                        99.493277,
                        104.0128,
                        101.75417,
                        105.25223,
                        104.05762,
                        100.71385,
                        100.38909,
                        102.11844,
                        97.354985,
                        103.24605,
                        104.6703,
                        101.67779,
                        103.00083,
                        105.26513,
                        101.24222,
                        107.97795,
                        100.24669,
                        96.818935,
                        101.76687,
                        103.04171,
                        97.424713,
                        95.465813,
                        97.471454,
                        91.944355,
                        98.845001,
                        100.52389,
                        98.057539,
                        93.455873,
                        95.241294,
                        89.366417,
                        94.880013,
                        100.21082,
                        102.94544,
                        103.455,
                        99.237083,
                        100.98435,
                        97.373081,
                        101.20585,
                        100.11088,
                        94.74342,
                        94.519408,
                        92.277965,
                        93.108516,
                        100.76918,
                        101.22423,
                        99.979085,
                        96.058406,
                        99.642174,
                        97.550445,
                        93.958548,
                        96.955998,
                        94.695355,
                        99.114741,
                        90.984299,
                        93.676381,
                        95.272076,
                        98.893196,
                        95.323376,
                        96.612751,
                        93.266271,
                        99.875144,
                        96.078631,
                        101.6199,
                        95.796693,
                        94.066732,
                        96.554085,
                        96.235891,
                        99.664198,
                        95.644534,
                        95.15535,
                        93.482126,
                        94.650676,
                        100.21488,
                        100.20458,
                        95.946777,
                        100.65517,
                        93.785195,
                        96.981906,
                        97.490704,
                        91.537764,
                        92.027279,
                        93.88127,
                        96.22615,
                        87.753527,
                        90.528581,
                        91.761549,
                        92.352689,
                        88.426031,
                        95.630106,
                        92.646595,
                        87.301384,
                        90.186256,
                        90.359114,
                        83.173266,
                        86.73496,
                        86.561794,
                        92.264379,
                        93.651579,
                        95.146004,
                        91.686961,
                        93.021373,
                        92.347253,
                        91.255996,
                        85.056062,
                        86.371777,
                        87.685811,
                        87.956351,
                        83.038962,
                        87.276864,
                        87.613365,
                        91.919522,
                        87.951928,
                        88.743311,
                        88.373383,
                        86.625668,
                        89.349118,
                        90.073732,
                        87.046511,
                        88.980926,
                        90.243452,
                        87.049158,
                        87.834847,
                        94.806671,
                        102.56176,
                        92.913812,
                        95.525202,
                        100.59555,
                        97.005693,
                        91.433748,
                        93.398934,
                        86.886707,
                        88.194404,
                        85.136896,
                        87.781037,
                        92.005737,
                        90.443138,
                        85.310022,
                        81.87234,
                        87.265052,
                        82.657237,
                        83.196534,
                        85.362675,
                        84.057616,
                        90.18138,
                        88.849732,
                        79.060285,
                        90.956856,
                        88.880255,
                        85.986774,
                        83.534298,
                        87.153425,
                        88.034708,
                        83.368988,
                        81.810542,
                        77.089266,
                        82.228509,
                        87.663232,
                        80.842823,
                        84.905721,
                        78.416242,
                        83.039753,
                        83.573377,
                        87.622002,
                        81.083037,
                        76.677506,
                        78.345645,
                        83.925874,
                        83.493316,
                        77.433531,
                        78.913244,
                        75.490862,
                        75.236967,
                        82.026662,
                        83.726582,
                        78.692924,
                        80.636968,
                        83.276247,
                        85.419085,
                        82.030975,
                        84.810592,
                        86.663358,
                        77.673606,
                        80.70822,
                        70.077072,
                        71.682026,
                        69.790457,
                        79.35435,
                        74.280081,
                        79.178381,
                        78.169066,
                        80.967108,
                        82.905722,
                        80.865264,
                        78.2041,
                        81.670313,
                        82.644429,
                        76.347269,
                        75.320438,
                        83.861764,
                        83.104835,
                        85.586227,
                        75.12673,
                        79.457673,
                        81.520008,
                        78.310659,
                        76.484464,
                        80.784745,
                        78.817175,
                        72.263756,
                        77.835215,
                        76.939398,
                        83.245659,
                        81.166019,
                        76.17774,
                        77.184275,
                        79.896513,
                        76.903413,
                        80.98996,
                        72.46795,
                        76.546883,
                        72.834466,
                        71.208217,
                        71.256473,
                        76.459079,
                        74.70411,
                        74.317402,
                        75.249675,
                        75.187952,
                        73.806483,
                        84.876531,
                        78.689579,
                        73.430454,
                        77.686275,
                        75.193415,
                        77.184648,
                        78.840814,
                        72.084833,
                        67.306808,
                        61.510422,
                        70.819557,
                        73.924444,
                        79.586478,
                        79.580369,
                        75.915656,
                        80.161546,
                        76.301556,
                        73.069073,
                        73.569534,
                        80.172334,
                        78.064109,
                        70.445238,
                        71.117627,
                        73.0085,
                        70.489367,
                        72.237936,
                        81.95735,
                        76.247034,
                        70.934971,
                        71.546283,
                        69.052797,
                        70.507987,
                        65.655143,
                        69.293459,
                        74.504669,
                        73.497022,
                        77.146278,
                        71.553102,
                        68.30832,
                        64.828785,
                        67.939408,
                        65.519994,
                        76.89797,
                        72.850805,
                        68.031191,
                        66.934306,
                        70.961377,
                        74.977299,
                        71.020375,
                        69.405402,
                        67.434705,
                        77.685106,
                        74.369577,
                        75.124331,
                        70.565161,
                        73.854184,
                        67.367794,
                        71.239094,
                        65.851838,
                        64.10955,
                        66.136733,
                        70.252554,
                        64.898002,
                        73.274525,
                        69.497847,
                        75.969383,
                        69.050166,
                        70.368433,
                        71.775425,
                        70.161888,
                        67.99967,
                        67.521789,
                        70.546544,
                        67.648444,
                        63.929742,
                        67.618514,
                        75.015393,
                        70.271705,
                        68.865298,
                        67.513964,
                        68.166403,
                        66.970604,
                        61.759288,
                        69.403655,
                        72.812424,
                        67.632844,
                        68.480832,
                        75.887756,
                        73.430782,
                        61.697059,
                        72.070978,
                        66.274292,
                        58.367699,
                        69.174345,
                        63.329883,
                        67.512619,
                        65.455243,
                        65.204904,
                        62.71399,
                        63.991266,
                        67.396243,
                        70.269253,
                        64.966681,
                        63.555299,
                        70.982622,
                        65.678504,
                        70.030497,
                        67.802395,
                        63.409458,
                        63.577372,
                        65.926555,
                        67.520433,
                        64.095387,
                        61.549456,
                        64.681854,
                        65.245055,
                        62.350664,
                        59.628853,
                        61.481992,
                        71.075226,
                        61.353141,
                        58.929795,
                        64.928456,
                        66.004218,
                        64.872391,
                        61.339906,
                        59.25618,
                        65.193111,
                        68.429051,
                        65.449225,
                        65.603069,
                        66.273274,
                        58.196436,
                        66.38524,
                        67.662803,
                        62.278694,
                        64.769163,
                        64.21028,
                        61.074267,
                        55.359714,
                        61.992871,
                        58.847744,
                        62.96735,
                        67.758427,
                        62.605912,
                        64.374569,
                        67.045076,
                        60.485969,
                        61.085233,
                        58.021151,
                        63.972088,
                        60.994737,
                        66.663801,
                        60.835106,
                        58.957767,
                        59.075301,
                        59.069518,
                        68.204537,
                        61.132644,
                        57.630153,
                        54.25716,
                        62.948726,
                        56.194235,
                        59.91272,
                        58.6048,
                        64.154589,
                        62.392827,
                        58.244997,
                        60.598982,
                        64.241111,
                        63.150139,
                        63.321605,
                        66.049266,
                        64.277108,
                        60.48217,
                        59.739119,
                        62.24973,
                        58.085856,
                        64.186269,
                        59.587788,
                        69.912645,
                        61.397624,
                        58.689712,
                        59.256976,
                        59.148043,
                        58.026958,
                        54.570385,
                        55.148606,
                        59.579716,
                        65.990781,
                        53.357791,
                        56.112857,
                        54.909505,
                        54.837557,
                        61.242033,
                        60.168058,
                        61.404237,
                        53.044034,
                        55.235597,
                        60.654593,
                        59.913915,
                        58.414779,
                        58.413149,
                        57.076789,
                        67.519784,
                        57.487196,
                        62.154626,
                        55.129826,
                        64.075684,
                        60.815519,
                        57.060988,
                        61.417171,
                        58.453891,
                        62.746021,
                        61.898217,
                        65.982516,
                        54.100956,
                        61.6681,
                        63.919125,
                        61.096194,
                        56.780108,
                        58.976157,
                        59.218293,
                        63.186423,
                        65.704452,
                        61.58317,
                        52.808236,
                        60.051869,
                        57.121204,
                        62.163742,
                        59.909322,
                        53.396535,
                        61.930955,
                        62.394974,
                        60.002859,
                        61.702522,
                        54.058071,
                        53.032972,
                        54.954955,
                        62.100188,
                        58.914626,
                        58.742943,
                        60.667988,
                        63.195136,
                        62.321868,
                        55.734535,
                        67.156612,
                        59.808157,
                        55.310063,
                        59.484629,
                        58.272504,
                        55.138261,
                        56.878873,
                        54.092937,
                        54.317904,
                        60.131527,
                        55.503739,
                        60.212706,
                        52.40944,
                        55.714638,
                        57.888745,
                        58.580405,
                        56.331572,
                        51.618217,
                        56.50299,
                        51.168831,
                        55.969762,
                        52.520291,
                        59.105924,
                        55.805847,
                        53.344138,
                        53.350441,
                        54.108388,
                        59.655828,
                        54.999342,
                        54.5311,
                        49.956605,
                        54.188807,
                        53.689823,
                        61.062418,
                        54.823998,
                        57.296105,
                        53.58784,
                        56.941809,
                        58.256843,
                        54.650109,
                        50.744952,
                        55.950494,
                        57.325764,
                        50.818087,
                        53.200129,
                        55.297581,
                        54.821713,
                        55.259946,
                        52.223579,
                        54.587516,
                        55.502932,
                        51.885285,
                        54.868721,
                        56.460907,
                        63.313138,
                        69.255469,
                        67.715537,
                        67.7331,
                        65.866605,
                        67.742549,
                        63.255284,
                        62.481061,
                        51.259592,
                        51.617963,
                        46.998484,
                        57.814817,
                        57.482132,
                        50.897594,
                        54.814319,
                        52.811227,
                        54.98978,
                        49.068885,
                        59.324073,
                        54.862216,
                        51.428735,
                        50.979538,
                        55.955606,
                        57.660254,
                        57.704767,
                        59.127784,
                        56.051755,
                        53.397129,
                        54.20017,
                        54.896478,
                        52.614994,
                        58.475015,
                        57.925506,
                        58.615222,
                        62.202143,
                        64.379316,
                        58.131824,
                        64.383696,
                        61.619185,
                        53.583965,
                        54.814711,
                        59.951637,
                        60.239601,
                        57.44545,
                        56.659335,
                        49.895572,
                        57.060735,
                        51.950596,
                        56.486751,
                        53.586004,
                        58.299923,
                        58.987516,
                        60.284286,
                        59.220459,
                        58.914495,
                        56.970994,
                        57.068848,
                        59.413854,
                        59.326956,
                        60.246852,
                        59.977771,
                        56.992497,
                        61.976862,
                        62.180198,
                        65.065747,
                        64.870976,
                        60.475296,
                        67.148021,
                        63.688492,
                        59.714175,
                        64.263609,
                        62.51142,
                        66.368383,
                        67.335886,
                        67.898475,
                        61.761792,
                        61.101804,
                        61.583703,
                        59.355336,
                        67.445066,
                        63.791971,
                        72.11066,
                        64.126116,
                        65.069301,
                        72.967324,
                        71.557361,
                        74.079734,
                        80.418611,
                        81.52313,
                        81.443695,
                        79.743824,
                        73.320204,
                        76.243174,
                        81.580698,
                        81.130565,
                        77.703205,
                        76.205487,
                        75.966919,
                        82.188129,
                        77.453816,
                        77.648382,
                        76.172851,
                        81.044471,
                        80.672471,
                        83.22264,
                        87.600449,
                        86.473958,
                        87.513161,
                        79.58642,
                        83.88726,
                        80.297243,
                        83.964398,
                        85.526066,
                        82.547284,
                        89.207779,
                        85.513404,
                        84.279194,
                        87.486553,
                        84.365411,
                        87.547711,
                        86.999181,
                        84.179805,
                        79.05295,
                        83.705661,
                        80.003823,
                        78.897829,
                        82.596907,
                        86.137233,
                        84.466799,
                        85.798029,
                        85.399545,
                        85.36519,
                        77.526867,
                        82.170311,
                        78.430194,
                        74.19762,
                        82.565778,
                        77.641061,
                        79.718429,
                        75.957728,
                        75.980381,
                        80.219272,
                        73.76996,
                        73.389757,
                        75.82227,
                        68.849118,
                        76.968733,
                        75.400353,
                        84.757178,
                        73.610565,
                        75.372123,
                        74.040489,
                        64.363585,
                        80.131101,
                        70.627671,
                        84.603005,
                        85.821103,
                        74.144093,
                        76.179283,
                        72.039679,
                        80.045075,
                        80.174441,
                        79.471892,
                        81.49545,
                        71.703428,
                        77.152807,
                        82.633431,
                        75.080898,
                        83.21969,
                        68.671081,
                        72.981485,
                        74.497869,
                        80.254289,
                        75.922367,
                        67.05866,
                        80.256533,
                        70.297089,
                        75.35275,
                        71.192606,
                        68.575867,
                        75.65814,
                        59.050105,
                        66.107637,
                        69.052865,
                        68.728598,
                        63.914535,
                        68.711466,
                        63.338882,
                        66.000222,
                        71.903784,
                        67.016827,
                        66.312864,
                        64.156886,
                        65.967076,
                        64.342623,
                        69.994698,
                        61.768655,
                        58.730523,
                        62.926987,
                        59.914886,
                        61.176548,
                        54.73287,
                        58.889108,
                        52.244751,
                        52.676751,
                        51.153002,
                        55.288889,
                        58.866003,
                        54.956966,
                        56.098655,
                        53.174939,
                        54.000353,
                        51.245952,
                        51.216891,
                        49.153517,
                        54.309934,
                        51.961638,
                        55.750253,
                        54.028309,
                        52.510016,
                        55.579948,
                        52.685679,
                        48.857142,
                        58.630784,
                        49.368466,
                        49.237404,
                        51.440592,
                        47.031736,
                        49.482428,
                        49.639787,
                        50.453416,
                        45.515216,
                        43.986323,
                        47.535372,
                        42.470564,
                        46.200523,
                        44.997467,
                        43.296574,
                        40.051187,
                        41.834049,
                        40.143597,
                        42.344686,
                        36.108828,
                        44.999495,
                        39.902138,
                        42.514513,
                        41.618435,
                        38.723855,
                        38.076268,
                        41.263591,
                        45.483681,
                        42.924377,
                        40.728667,
                        36.625462,
                        40.770879,
                        42.763882,
                        39.837805,
                        39.034672,
                        41.709492,
                        38.272817,
                        35.05667,
                        38.050245,
                        40.393813,
                        42.569764,
                        35.069344,
                        38.220499,
                        37.893111,
                        40.733535,
                        39.453444,
                        39.839718,
                        39.850679,
                        39.174971,
                        39.018543,
                        40.957658,
                        37.478627,
                        38.943291,
                        33.557113,
                        32.779019,
                        33.534908,
                        34.607048,
                        34.475725,
                        36.582422,
                        35.934855,
                        37.749777,
                        36.531872,
                        39.585356,
                        33.708626,
                        31.420302,
                        38.521373,
                        37.275235,
                        42.091664,
                        38.218559,
                        40.286437,
                        35.301152,
                        36.850444,
                        40.042522,
                        36.954135,
                        36.995786,
                        33.528005,
                        28.492503,
                        36.787473,
                        37.993299,
                        35.09223,
                        34.211528,
                        39.287752,
                        31.609509,
                        31.686643,
                        35.141171,
                        32.536546,
                        35.868225,
                        33.01921,
                        36.501589,
                        32.263574,
                        32.982528,
                        31.915828,
                        37.00989,
                        37.314866,
                        37.627087,
                        37.419523,
                        36.90701,
                        33.761432,
                        38.142422,
                        35.1594,
                        33.514084,
                        38.171534,
                        37.578001,
                        38.547165,
                        35.431016,
                        39.962836,
                        34.170309,
                        32.878465,
                        32.839402,
                        33.414714,
                        33.113841,
                        34.576076,
                        34.953453,
                        40.263978,
                        36.130641,
                        32.876855,
                        35.665501,
                        35.386333,
                        31.262827,
                        35.518628,
                        34.56227,
                        31.545397,
                        34.243322,
                        34.703138,
                        30.796435,
                        33.047157,
                        38.684092,
                        34.170998,
                        32.685935,
                        32.813144,
                        34.811631,
                        33.19023,
                        32.216532,
                        32.135431,
                        35.159446,
                        32.026219,
                        33.56416,
                        32.148199,
                        29.122223,
                        33.801881,
                        35.370274,
                        30.673649,
                        30.362736,
                        32.682296,
                        36.24411,
                        35.862323,
                        38.364954,
                        37.204497,
                        37.233994,
                        41.628072,
                        36.790448,
                        36.619376,
                        31.688282,
                        35.282049,
                        33.482696,
                        33.55212,
                        32.828289,
                        32.803067,
                        33.56264,
                        31.200466,
                        30.792987,
                        32.009306,
                        31.850668,
                        31.555482,
                        32.829473,
                        28.48161,
                        31.590108,
                        29.733445,
                        31.79797,
                        31.312858,
                        29.36784,
                        31.54194,
                        29.997231,
                        34.374354,
                        30.782767,
                        34.352192,
                        28.283694,
                        30.549584,
                        30.154052,
                        33.65015,
                        34.529204,
                        29.392824,
                        31.634058,
                        34.124805,
                        30.978468,
                        35.387807,
                        31.058413,
                        27.188262,
                        29.546477,
                        28.769716,
                        32.741262,
                        31.214869,
                        33.082676,
                        33.267942,
                        30.883807,
                        31.355813,
                        27.148278,
                        25.312414,
                        33.963473,
                        28.133974,
                        29.55998,
                        28.618536,
                        29.064447,
                        30.934904,
                        33.692025,
                        32.61626,
                        28.335264,
                        32.081886,
                        26.208348,
                        31.095703,
                        33.51198,
                        34.719251,
                        34.679812,
                        27.968361,
                        25.983001,
                        28.174526,
                        28.873586,
                        30.803263,
                        30.684716,
                        33.511292,
                        30.519604,
                        33.608595,
                        33.807934,
                        32.470866,
                        32.631464,
                        31.42232,
                        30.089021,
                        31.300497,
                        34.77376,
                        31.465377,
                        38.287537,
                        33.310741,
                        27.903528,
                        38.481354,
                        32.290946,
                        30.442608,
                        33.2531,
                        36.05453,
                        34.68322,
                        33.029744,
                        32.815362,
                        33.4405
                    ]
                }
            ]
        }
    ]
}